File: CSV/TIF326_Tensile_test_LDPE_CM_MD_strain_percent_stress_MPa.csv
Strain1[%],Stress1[MPa],Strain2,Stress2,Strain3,Stress3,Strain4,Stress4,Strain5,Stress5,Strain6,Stress6,Strain7,Stress7,Strain8,Stress8,Strain9,Stress9,Strain10,Stress10,Strain1[%],Stress1[MPa],Strain2,Stress2,Strain3,Stress3,Strain4,Stress4,Strain5,Stress5,Strain6,Stress6,Strain7,Stress7,Strain8,Stress8,Strain9,Stress9,Strain10,Stress10
0.0,0.618992,0.0,0.612641,0.0,0.588768,0.0,0.609592,0.0,0.612566,0.0,0.608254,0.0,0.596968,0.0,0.596497,0.0,0.61358,0.0,0.588177,0.0,0.616721,0.0,0.599233,0.0,0.592412,0.0,0.587826,0.0,0.600018,0.0,0.606388,0.0,0.595773,0.0,0.60945,0.0,0.608053,0.0,0.605325
1.19904,4.30297,1.24588,4.35096,1.24233,4.30149,1.03826,3.63362,1.23436,4.11053,1.18991,4.03877,1.20962,4.25762,1.19394,4.27631,1.26566,4.45243,1.27636,4.40878,1.25639,3.84077,1.24824,3.58025,1.21319,3.43723,0.778283,2.60959,1.17986,3.26653,1.20803,3.38204,1.14381,3.25937,1.17081,3.4899,1.29596,3.78761,0.74255,2.51509
3.79398,8.00659,3.84294,7.94625,3.82059,8.00156,3.6299,7.34185,3.83145,7.66339,3.77715,7.59605,3.80188,7.87781,3.7771,8.06655,3.85659,8.17713,3.86593,8.02703,3.85133,7.81355,3.83815,7.28633,3.81295,7.06247,3.37762,6.62464,3.76982,6.80777,3.79758,6.94079,3.74198,6.86082,3.76595,7.24996,3.89028,7.62144,3.33669,6.5505
6.3889,9.35951,6.44012,9.26981,6.39852,9.44997,6.22172,8.76433,6.42835,9.01717,6.364,8.96041,6.39432,9.20442,6.3603,9.50344,6.44768,9.58851,6.45529,9.38805,6.44687,10.1136,6.42843,9.4711,6.41294,9.19547,5.97664,8.92501,6.36,8.91258,6.38739,9.02681,6.34028,8.97424,6.36119,9.41964,6.48481,9.87643,5.93058,8.87631
8.98372,9.65956,9.03748,9.57664,8.97639,9.83453,8.81374,9.14024,9.02567,9.36084,8.95119,9.309,8.98691,9.50551,8.94399,9.85512,9.03863,9.92489,9.04477,9.70973,9.04214,11.3612,9.0186,10.6818,9.01321,10.3793,8.57551,10.1902,8.95007,10.0878,8.97682,10.1749,8.93886,10.1475,8.95664,10.602,9.07909,11.1222,8.52447,10.1792
11.5786,9.53901,11.6343,9.47529,11.5548,9.75833,11.4051,9.07358,11.6224,9.28016,11.5385,9.23138,11.5793,9.39878,11.527,9.75035,11.6296,9.81591,11.6345,9.60582,11.6371,12.0402,11.6085,11.3576,11.613,11.0438,11.1748,10.8802,11.54,10.7478,11.5664,10.8155,11.537,10.8013,11.5516,11.2526,11.6735,11.812,11.1186,10.8902
14.1732,9.34442,14.2316,9.29304,14.1327,9.57201,13.9972,8.90349,14.2195,9.1069,14.1253,9.06124,14.1718,9.21291,14.1105,9.54962,14.2204,9.61598,14.2238,9.41603,14.2324,12.4562,14.1986,11.7848,14.2131,11.4625,13.7739,11.3063,14.1301,11.1681,14.1559,11.2243,14.1353,11.2155,14.147,11.6601,14.2681,12.2379,13.7123,11.3239
16.7681,9.21298,16.8288,9.16264,16.7106,9.42565,16.589,8.77685,16.8168,8.97643,16.7126,8.93667,16.7643,9.08054,16.6938,9.3936,16.8116,9.46888,16.8133,9.27874,16.8275,12.7461,16.7888,12.092,16.8132,11.7671,16.3727,11.6069,16.7204,11.4724,16.7456,11.5216,16.7339,11.5124,16.7423,11.9567,16.8625,12.5411,16.3065,11.6273
19.3632,9.1702,19.4258,9.1106,19.2887,9.36365,19.1805,8.72729,19.4136,8.92542,19.2997,8.8937,19.3566,9.02911,19.277,9.31947,19.4026,9.41197,19.4029,9.22718,19.4229,12.9869,19.3788,12.3497,19.4133,12.0214,18.972,11.8574,19.3101,11.7328,19.3354,11.7768,19.3322,11.7654,19.3373,12.2082,19.4568,12.7926,18.9005,11.8776
21.9577,9.19071,22.023,9.12757,21.8669,9.37031,21.7724,8.7444,22.0106,8.94404,21.8866,8.91104,21.9493,9.04462,21.8604,9.31815,21.9933,9.42628,21.9922,9.24349,22.0181,13.2189,21.9688,12.6031,22.0132,12.2739,21.5709,12.0989,21.9003,11.9859,21.9246,12.0272,21.9304,12.0105,21.9326,12.4537,22.0514,13.0393,21.4942,12.1161
24.5526,9.24739,24.6202,9.18212,24.4448,9.41462,24.3643,8.79919,24.6078,9.0082,24.4739,8.9634,24.5417,9.09805,24.4439,9.35744,24.5843,9.47273,24.5819,9.29515,24.613,13.4605,24.559,12.8693,24.6133,12.5382,24.1699,12.3521,24.4905,12.2455,24.5142,12.2842,24.5289,12.2687,24.5279,12.7087,24.6457,13.2959,24.0884,12.3718
27.1477,9.31493,27.2172,9.25164,27.023,9.48167,26.9558,8.87061,27.2046,9.08576,27.0609,9.03061,27.134,9.16452,27.0269,9.41916,27.1755,9.53804,27.1713,9.36158,27.2086,13.7123,27.1489,13.1411,27.2133,12.813,26.7692,12.6132,27.0804,12.5142,27.1041,12.5497,27.1272,12.534,27.1229,12.9705,27.2401,13.5597,26.6823,12.6371
29.7422,9.38211,29.8144,9.32538,29.601,9.55737,29.5477,8.94394,29.8016,9.16124,29.648,9.10322,29.7267,9.2374,29.6105,9.48635,29.7662,9.60392,29.7607,9.43299,29.8038,13.9665,29.7391,13.4111,29.8134,13.0854,29.3681,12.8785,29.6704,12.7839,29.6934,12.8151,29.7256,12.8004,29.7182,13.2296,29.8346,13.8288,29.2761,12.9027
32.3372,9.45181,32.4116,9.39584,32.1791,9.63134,32.1395,9.01715,32.3988,9.23501,32.2353,9.17736,32.3191,9.31062,32.1938,9.5566,32.3573,9.67447,32.3504,9.50087,32.3987,14.224,32.3292,13.682,32.4134,13.3554,31.9674,13.1445,32.26053,13.0579,32.283,13.0813,32.324,13.0678,32.3135,13.4935,32.429,14.0983,31.8703,13.1665
34.9322,9.51002,35.0087,9.45654,34.7572,9.69102,34.7312,9.08047,34.9957,9.29889,34.8223,9.23987,34.9114,9.37014,34.7769,9.61596,34.9483,9.73203,34.9399,9.55834,34.9941,14.4688,34.9193,13.9408,35.0133,13.6121,34.5664,13.3981,34.8505,13.313,34.8727,13.3408,34.9222,13.3223,34.9086,13.7458,35.0233,14.352,34.4642,13.4187
37.5269,9.55603,37.6061,9.50756,37.335,9.73977,37.3233,9.13301,37.5931,9.35092,37.4093,9.29038,37.5041,9.41894,37.3604,9.66159,37.5392,9.77904,37.5292,9.60512,37.5895,14.6991,37.5095,14.1781,37.6135,13.8506,37.1654,13.6307,37.4407,13.5491,37.4621,13.5777,37.5206,13.5583,37.5042,13.9801,37.6179,14.5874,37.058,13.653
40.1218,9.59196,40.2031,9.54846,39.9133,9.78068,39.9148,9.1764,40.1899,9.39309,39.9966,9.33216,40.0964,9.45783,39.9437,9.69445,40.1302,9.81589,40.1188,9.64223,40.1844,14.9119,40.0994,14.3988,40.2135,14.0692,39.7646,13.8492,40.0307,13.7695,40.0518,13.7974,40.1191,13.7745,40.0992,14.1965,40.2121,14.8076,39.6521,13.8799
42.7166,9.61655,42.8001,9.57947,42.4914,9.80859,42.5065,9.20901,42.7867,9.42676,42.5836,9.36185,42.6889,9.48522,42.527,9.71673,42.7211,9.83963,42.7084,9.66726,42.7797,15.1047,42.6894,14.6012,42.8133,14.2733,42.3637,14.0535,42.6206,13.9711,42.6414,14.0008,42.7172,13.9719,42.6943,14.3925,42.8067,15.006,42.2459,14.0837
45.3113,9.62902,45.3976,9.59456,45.0693,9.8231,45.0986,9.22602,45.3841,9.45075,45.1707,9.37711,45.2815,9.49868,45.1103,9.7266,45.3121,9.84702,45.2977,9.68,45.3748,15.2732,45.2797,14.7782,45.4135,14.4525,44.9626,14.2301,45.2111,14.147,45.2309,14.1812,45.3156,14.1425,45.2898,14.5641,45.4012,15.1806,44.84,14.2625
47.9065,9.63203,47.9946,9.60077,47.6472,9.82724,47.6901,9.23422,47.9811,9.4658,47.7579,9.3865,47.8737,9.50776,47.6937,9.7326,47.9033,9.84884,47.8873,9.68313,47.9701,15.4211,47.8698,14.939,48.0137,14.611,47.5618,14.3878,47.8009,14.305,47.8207,14.3432,47.9142,14.3018,47.8849,14.7174,47.9953,15.3366,47.4341,14.4242
50.5011,9.62785,50.5915,9.59869,50.2257,9.82342,50.2818,9.23595,50.5778,9.47367,50.3449,9.38718,50.4664,9.50861,50.2769,9.72787,50.4939,9.84059,50.4768,9.6772,50.5654,15.5518,50.4597,15.0807,50.6134,14.7499,50.1609,14.5312,50.3908,14.4421,50.4101,14.4825,50.5122,14.4444,50.4799,14.8534,50.59,15.4758,50.0278,14.5651
53.0958,9.6098,53.1889,9.59136,52.8034,9.80994,52.8738,9.22744,53.1752,9.47538,52.9321,9.37534,53.0589,9.50227,52.8603,9.71237,53.0848,9.82208,53.0663,9.66225,53.1604,15.6504,53.0499,15.1989,53.2136,14.863,52.7597,14.6659,52.9811,14.5623,52.9995,14.6017,53.1107,14.5616,53.0754,14.9667,53.1844,15.5913,52.6218,14.6831
55.6909,9.5846,55.7859,9.57375,55.3816,9.79624,55.4654,9.21012,55.7721,9.47115,55.5192,9.36239,55.6512,9.48486,55.4436,9.69188,55.6761,9.79825,55.6558,9.64274,55.7558,15.7334,55.6399,15.2998,55.8136,14.9631,55.3589,14.7746,55.5712,14.6663,55.5894,14.7019,55.709,14.6583,55.6704,15.0589,55.7787,15.6929,55.216,14.7855
58.2856,9.55262,58.383,9.54671,57.9597,9.77754,58.0571,9.18733,58.3689,9.46102,58.1061,9.34442,58.2437,9.46358,58.0269,9.66603,58.2669,9.76758,58.2452,9.61446,58.3511,15.8021,58.23,15.3785,58.4137,15.0476,57.9581,14.8562,58.161,14.7547,58.1788,14.7818,58.3074,14.7462,58.2657,15.137,58.3732,15.7787,57.8097,14.8765
60.8803,9.51335,60.9803,9.5126,60.5377,9.74762,60.649,9.15939,60.9662,9.44376,60.6934,9.3154,60.8362,9.43395,60.6104,9.63078,60.8578,9.72922,60.8348,9.57781,60.946,15.8529,60.8201,15.4234,61.0138,15.12,60.5572,14.9142,60.7512,14.8253,60.7683,14.8454,60.9059,14.8189,60.861,15.1982,60.9676,15.8445,60.4038,14.9463
63.4753,9.46984,63.5772,9.47233,63.1158,9.71363,63.2406,9.12589,63.563,9.42102,63.2806,9.27666,63.4286,9.39526,63.1935,9.59023,63.4489,9.68354,63.4245,9.53647,63.5413,15.8847,,,63.6136,15.1699,63.1562,14.8837,63.3411,14.8713,63.3581,14.8924,,,63.456,15.2307,63.5619,15.876,62.9978,14.9888
66.0701,9.42578,66.1748,9.42478,65.6938,9.67474,65.8329,9.0872,66.1604,9.38967,65.8675,9.23055,66.0212,9.35187,65.7768,9.54364,66.0397,9.62997,66.0136,9.49053,66.1367,15.6007,,,66.2137,15.1908,,,65.9313,14.8406,65.9475,14.8984,,,66.0517,15.1519,,,65.5915,14.6612
68.665,9.37684,68.7717,9.37044,68.2717,9.62879,68.4244,9.04492,68.7573,9.35143,68.4547,9.17578,68.6136,9.30061,68.3603,9.48428,68.6309,9.57166,68.6032,9.43376,,,,,,,,,,,,,,,,,,,,
71.2599,9.31792,71.3686,9.30411,70.85,9.57168,71.0159,8.99117,71.3541,9.30536,71.042,9.1082,71.206,9.23513,70.9436,9.42012,71.2218,9.49664,71.193,9.35664,,,,,,,,,,,,,,,,,,,,
73.8545,9.24824,73.9662,9.23373,73.4279,9.50709,73.6081,8.92985,73.9514,9.25845,73.6289,9.03196,73.7986,9.16044,73.5268,9.34945,73.8126,9.40077,73.7822,9.2527,,,,,,,,,,,,,,,,,,,,
76.4496,9.15886,76.5634,9.15657,76.0058,9.43071,76.1999,8.85748,76.5485,9.20375,76.216,8.94345,76.3909,9.07225,76.1102,9.26778,76.4038,9.15824,76.3717,8.97531,,,,,,,,,,,,,,,,,,,,
79.0444,9.04115,79.1601,9.06757,78.5842,9.34357,78.7913,8.77401,79.1452,9.13214,78.8031,8.83315,78.9833,8.97094,,,,,,,,,,,,,,,,,,,,,,,,,,
81.6389,8.90997,81.7574,8.96613,81.1622,9.24482,81.3832,8.6776,81.7424,9.04569,81.3902,8.71766,81.576,8.85759,,,,,,,,,,,,,,,,,,,,,,,,,,
84.234,8.78891,84.3546,8.87256,83.7401,9.14597,83.975,8.58005,84.3395,8.95312,83.9774,8.58477,84.1685,8.74691,,,,,,,,,,,,,,,,,,,,,,,,,,
,,86.9516,8.81089,86.3184,9.06194,86.5666,8.50079,86.9363,8.85569,,,86.7607,8.45385,,,,,,,,,,,,,,,,,,,,,,,,,,
,,89.5489,8.81042,88.8963,9.01667,89.1586,8.30468,89.5335,8.76338,,,,,,,,,,,,,,,,,,,,,,,,,,,,,,
,,92.1459,8.85728,91.4744,8.83154,,,,,,,,,,,,,,,,,,,,,,,,,,,,,,,,,,
,,94.7433,8.90953,,,,,,,,,,,,,,,,,,,,,,,,,,,,,,,,,,,,
,,97.3404,8.95182,,,,,,,,,,,,,,,,,,,,,,,,,,,,,,,,,,,,
,,99.9373,8.9746,,,,,,,,,,,,,,,,,,,,,,,,,,,,,,,,,,,,
,,102.535,8.91448,,,,,,,,,,,,,,,,,,,,,,,,,,,,,,,,,,,,
,,103.277,8.50831,,,,,,,,,,,,,,,,,,,,,,,,,,,,,,,,,,,,